File: Calculate-Module/ConsoleApp1/ConsoleApp1/bin/SiO2 1000nm_on_Si.dat
wavelength(nm)	AOI	Psi	Delta
210.487	65	40.2533	211.131
213.669	65	49.2015	159.709
216.851	65	41.1927	106.168
220.032	65	35.61935	138.15
223.213	65	35.7394	195.104
226.394	65	43.18605	214.989
229.575	65	50.2365	142.875
232.756	65	41.1162	103.951
235.937	65	35.4893	125.982
239.117	65	33.401	173.788
242.298	65	37.6213	214.581
245.478	65	46.1603	214.197
248.659	65	51.101	136.082
251.839	65	42.8234	101.9274
255.019	65	38.15366	115.891
258.199	65	35.8627	152.659
261.379	65	36.7048	194.622
264.559	65	40.4955	222.08
267.739	65	46.5914	215.719
270.919	65	50.7151	153.232
274.098	65	44.6481	108.746
277.278	65	40.3493	109.444
280.458	65	37.4369	132.176
283.637	65	35.7214	166.146
286.817	65	36.2031	201.54
289.996	65	38.682	226.6568
293.175	65	43.30418	232.68
296.355	65	51.2036	209.425
299.534	65	53.2489	144.393
302.713	65	44.6888	109.717
305.893	65	38.878	107.32
309.072	65	34.8689	119.702
312.251	65	31.7715	141.5831
315.43	65	30.1203	169.362
318.609	65	30.6386	197.954
321.788	65	32.9793	220.918
324.967	65	36.7161	235.207
328.146	65	42.1637	237.747
331.325	65	49.952	223.983
334.504	65	57.8259	177.464
337.682	65	51.3561	124.896
340.861	65	43.5757	108.083
344.04	65	38.7195	106.33
347.219	65	35.2162	113.732
350.397	65	32.6984	127.087
353.576	65	30.7036	147.174
356.754	65	29.8856	168.561
359.933	65	30.4397	191.6795
363.111	65	32.1666	212.953
366.29	65	34.5856	228.76
369.468	65	37.45	239.459
372.647	65	41.1769	242.5
375.825	65	46.5109	237.043
379.003	65	53.9408	217.789
382.181	65	59.3233	173.175
385.359	65	53.5094	131.047
388.538	65	45.9335	113.239
391.716	65	40.313	108.137
394.894	65	36.2136	109.873
398.071	65	32.7954	115.914
401.249	65	29.8594	125.943
404.4271	65	27.41	138.601
407.605	65	25.5769	154.414
410.782	65	24.4625	171.72
413.96	65	24.2607	189.412
417.1375	65	25.0955	206.551
420.315	65	26.4692	220.846
423.492	65	28.4956	232.897
426.669	65	30.8329	242.039
429.847	65	33.5794	248.526
433.024	65	36.2396	250.5278
436.201	65	40.9405	250.223
439.377	65	46.9525	248.033
442.554	65	54.9281	237.894
445.731	65	64.5386	213.235
448.907	65	67.559	160.0378
452.084	65	58.7715	122.995
455.26	65	49.7528	109.324
458.436	65	43.1888	103.9978
461.612	65	38.5211	102.525
464.788	65	34.8046	104.122
467.964	65	31.7061	107.818
471.14	65	29.1332	113.144
474.315	65	26.85693	120.095
477.491	65	24.9415	128.074
480.666	65	23.0733	138.42
483.841	65	21.7524	149.998
487.016	65	20.8045	162.216
490.19	65	20.1974	175.648
493.365	65	20.2834	188.768
496.539	65	20.7524	201.436
499.714	65	21.5908	212.958
502.888	65	22.95463	223.251
506.062	65	24.33168	231.816
509.235	65	26.1733	239.754
512.409	65	28.051	245.818
515.582	65	30.0828	250.3428
518.755	65	32.25864	252.946
521.928	65	35.2482	256.0892
525.1	65	38.2124	256.858
528.273	65	41.9128	256.398
531.445	65	47.064	253.982
534.617	65	53.1578	248.964
537.789	65	60.8196	240.153
540.96	65	69.4945	220.556
544.131	65	74.8245	171.0872
547.302	65	68.44059	130.058
550.473	65	59.8508	112.752
553.644	65	52.5353	105.188
556.814	65	46.806	100.978
559.984	65	42.092	99.2807
563.154	65	38.4006	98.7919
566.323	65	35.6033	99.4246
569.492	65	33.1753	100.94
572.661	65	31.01667	103.0941
575.83	65	29.14987	106.3435
578.998	65	27.47493	109.642
582.166	65	25.65604	114.286
585.333	65	24.249	119.336
588.501	65	22.9649	124.992
591.668	65	21.6112	131.035
594.834	65	20.5932	138.228
598.001	65	19.6863	146.024
601.167	65	18.8063	153.452
604.333	65	18.2768	162.204
607.498	65	17.9785	170.927
610.663	65	17.85433	180.623
613.828	65	18.0369	189.375
616.992	65	18.3126	197.76
620.156	65	18.8015	206.071
623.319	65	19.3689	214.123
626.483	65	20.262	220.721
629.645	65	21.124	227.131
632.808	65	22.1089	232.636
635.97	65	23.2633	237.817
639.132	65	24.3893	241.856
642.293	65	25.5506	245.847
645.454	65	27.0217	249.695
648.614	65	28.3357	252.382
651.774	65	29.7962	254.761
654.934	65	31.4215	256.89
658.093	65	33.1967	258.6153
661.252	65	35.3064	259.972
664.411	65	37.2961	260.472
667.569	65	39.7701	260.386
670.726	65	42.3985	259.994
673.883	65	45.5877	259.226
677.04	65	49.3112	258.007
680.196	65	54.1959	254.867
683.352	65	59.1087	251.028
686.508	65	65.0443	245.111
689.663	65	71.219	233.578
692.817	65	76.7783	209.605
695.971	65	78.7939	168.124
699.125	65	74.5061	133.843
702.278	65	68.7156	116.42
705.43	65	62.3589	108.2815
708.582	65	57.6262	103.2142
711.734	65	53.2669	100.156
714.885	65	48.8452	97.8513
718.036	65	45.8788	96.8564
721.186	65	42.9244	96.0236
724.336	65	40.3829	95.5636
727.485	65	38.5771	95.6347
730.634	65	36.08633	96.3049
733.782	65	34.6886	97.1936
736.93	65	33.1643	98.1922
740.077	65	31.6868	98.9234
743.224	65	30.4423	100.699
746.37	65	29.2266	102.421
749.516	65	28.0587	104.3455
752.661	65	26.8899	106.1221
755.806	65	25.7822	108.656
758.95	65	24.8456	111.322
762.094	65	23.96851	114.145
765.237	65	23.1149	116.773
768.38	65	22.4106	119.578
771.522	65	21.6134	123.946
774.664	65	20.6941	126.609
777.805	65	19.8525	130.687
780.946	65	19.4476	135.168
784.086	65	18.7403	139.982
787.225	65	17.997	143.669
790.364	65	17.8012	148.679
793.503	65	17.3242	153.732
796.641	65	17.0359	158.341
799.779	65	16.7003	164.423
802.916	65	16.249	169.295
806.0521	65	16.2777	174.0537
809.188	65	16.0554	180.4659
812.324	65	16.5284	184.493
815.458	65	16.5259	191.004
818.593	65	16.5675	195.003
821.727	65	16.7438	202.836
824.86	65	17.2789	204.912
827.993	65	17.5181	208.794
831.125	65	17.8173	213.297
834.257	65	18.2971	216.9649
837.389	65	18.81381	221.599
840.52	65	19.2906	225.102
843.65	65	19.6671	228.489
846.78	65	20.7783	231.988
849.909	65	21.2444	234.0143
853.038	65	22.0856	238.559
856.166	65	22.5361	240.619
859.294	65	23.1282	241.774
862.422	65	23.8088	245.265
865.549	65	24.572	246.4547
868.675	65	25.187	250.363
871.801	65	25.99317	251.41
874.926	65	26.5828	252.357
878.051	65	27.3927	253.215
881.176	65	28.37888	256.954
884.3	65	28.5059	256.023
887.424	65	29.8325	257.986
890.547	65	30.475	259.128
893.67	65	31.4569	259.722
896.792	65	32.5231	260.409
899.914	65	33.1368	260.307
903.035	65	35.2318	263.424
906.156	65	35.4854	262.251
909.277	65	36.4294	261.939
912.397	65	38.3689	263.077
915.517	65	39.76685	262.988
918.636	65	41.3944	263.287
921.755	65	42.9588	262.885
924.873	65	43.9535	262.941
927.992	65	45.4275	260.839
931.109	65	48.0047	260.951
934.227	65	50.8701	260.9592
937.344	65	53.4568	259.561
940.461	65	56.7044	258.196
943.577	65	58.0604	255.051
946.693	65	61.036	254.444
949.809	65	64.1986	253.243
952.925	65	67.2548	247.406
956.04	65	70.2016	243.408
959.155	65	73.7196	234.59
962.269	65	76.6293	223.529
965.383	65	79.2255	205.744
968.497	65	80.8993	181.155
971.611	65	78.7982	144.953
974.725	65	76.1669	124.761
977.838	65	73.5917	118.829
980.951	65	71.773	112.883
984.064	65	68.3152	111.899
987.177	65	64.4691	106.249
988.733	65	62.4608	102.767